room_temperature(K),298.15
water_volume(mL),3000
cotton_mass(g),0.0275
combustible_mass(g),1
Nickel_before_mass(g),0.008
Nickel_after_mass(g),0.003
time(s),Delta_T(K)
0.58,0.01
1.221,0.01
1.999,0.01
2.629,0.01
3.405,0.01
4.044,0.011
4.815,0.011
5.448,0.011
6.226,0.011
6.869,0.011
7.638,0.011
8.28,0.011
9.05,0.012
9.691,0.012
10.462,0.012
11.103,0.012
11.873,0.012
12.514,0.012
13.29,0.012
13.925,0.013
14.698,0.012
15.329,0.013
16.11,0.013
16.749,0.013
17.526,0.014
18.158,0.013
18.935,0.014
19.566,0.014
20.347,0.013
20.978,0.014
21.76,0.014
22.397,0.015
23.169,0.015
23.798,0.014
24.581,0.015
25.219,0.014
25.989,0.015
26.624,0.016
27.405,0.015
28.036,0.015
28.816,0.015
29.448,0.015
30.225,0.016
30.861,0.016
31.642,0.016
32.274,0.016
33.045,0.015
33.689,0.016
34.464,0.017
35.093,0.016
35.874,0.017
36.505,0.017
37.28,0.017
37.917,0.018
38.698,0.017
39.327,0.017
40.108,0.017
40.744,0.017
41.519,0.017
42.159,0.017
42.934,0.018
43.562,0.018
44.342,0.019
44.974,0.018
45.755,0.019
46.392,0.018
47.167,0.019
47.798,0.018
48.579,0.019
49.215,0.019
49.992,0.019
50.622,0.02
51.401,0.019
52.039,0.019
52.806,0.019
53.446,0.019
54.227,0.019
54.858,0.02
55.636,0.019
56.27,0.02
57.041,0.02
57.685,0.02
58.453,0.019
59.094,0.02
59.864,0.02
60.504,0.02
61.285,0.02
61.915,0.02
62.687,0.02
63.329,0.021
64.099,0.021
64.74,0.021
65.518,0.021
66.151,0.022
66.931,0.022
67.566,0.022
68.339,0.022
68.977,0.022
69.745,0.021
70.385,0.022
71.163,0.022
71.794,0.022
72.567,0.023
73.208,0.022
73.982,0.022
74.619,0.022
75.394,0.022
76.027,0.021
76.81,0.022
77.442,0.023
78.213,0.022
78.854,0.022
79.635,0.023
80.261,0.023
81.039,0.023
81.679,0.022
82.456,0.023
83.086,0.023
83.86,0.023
84.495,0.023
85.275,0.023
85.908,0.024
86.689,0.024
87.325,0.023
88.099,0.024
88.734,0.023
89.513,0.024
90.151,0.024
90.922,0.024
91.562,0.024
92.332,0.024
92.973,0.024
93.742,0.024
94.384,0.024
95.155,0.025
95.797,0.025
96.572,0.025
97.208,0.025
97.982,0.025
98.614,0.025
99.39,0.025
100.026,0.025
100.808,0.025
101.443,0.025
102.218,0.025
102.846,0.025
103.628,0.025
104.256,0.025
105.04,0.025
105.669,0.026
106.452,0.026
107.087,0.026
107.861,0.027
108.493,0.026
109.271,0.025
109.904,0.026
110.685,0.026
111.316,0.026
112.095,0.026
112.727,0.027
113.509,0.026
114.146,0.027
114.923,0.027
115.559,0.026
116.331,0.027
116.968,0.026
117.746,0.027
118.381,0.027
119.149,0.027
119.79,0.027
120.57,0.028
121.203,0.027
121.979,0.027
122.614,0.027
123.384,0.027
124.024,0.028
124.795,0.028
125.436,0.028
126.216,0.028
126.851,0.028
127.626,0.028
128.261,0.028
129.031,0.028
129.672,0.027
130.443,0.028
131.084,0.027
131.858,0.028
132.494,0.028
133.266,0.029
133.908,0.028
134.679,0.028
135.314,0.028
136.095,0.028
136.727,0.029
137.499,0.028
138.142,0.029
138.914,0.028
139.556,0.029
140.329,0.029
140.965,0.028
141.736,0.029
142.377,0.029
143.153,0.029
143.787,0.029
144.561,0.03
145.193,0.029
145.975,0.029
146.604,0.03
147.38,0.029
148.016,0.029
148.799,0.03
149.429,0.03
150.203,0.03
150.843,0.03
151.616,0.029
152.252,0.03
153.033,0.03
153.668,0.03
154.443,0.03
155.075,0.031
155.85,0.03
156.494,0.03
157.26,0.03
157.904,0.03
158.681,0.031
159.309,0.03
160.086,0.03
160.723,0.031
161.501,0.031
162.132,0.031
162.91,0.031
163.546,0.03
164.318,0.031
164.962,0.031
165.738,0.031
166.373,0.032
167.15,0.031
167.778,0.032
168.561,0.031
169.194,0.031
169.966,0.031
170.604,0.031
171.384,0.032
172.016,0.032
172.791,0.031
173.428,0.032
174.2,0.032
174.841,0.031
175.619,0.032
176.25,0.032
177.024,0.032
177.663,0.032
178.434,0.032
179.154,0.032
179.854,0.032
180.485,0.033
181.257,0.032
181.976,0.032
182.677,0.033
183.31,0.032
184.088,0.032
184.719,0.032
185.496,0.032
186.128,0.032
186.911,0.033
187.543,0.033
188.319,0.033
188.953,0.033
189.735,0.033
190.364,0.033
191.138,0.033
191.776,0.033
192.549,0.033
193.192,0.033
193.966,0.033
194.599,0.033
195.38,0.034
196.007,0.033
196.791,0.033
197.421,0.033
198.203,0.033
198.835,0.034
199.611,0.034
200.246,0.034
201.027,0.034
201.659,0.033
202.429,0.034
203.071,0.033
203.841,0.034
204.484,0.034
205.254,0.034
205.89,0.034
206.666,0.034
207.307,0.034
208.077,0.034
208.719,0.034
209.489,0.035
210.128,0.035
210.901,0.035
211.542,0.035
212.314,0.035
212.954,0.035
213.726,0.035
214.357,0.035
215.14,0.035
215.77,0.035
216.549,0.035
217.188,0.034
217.961,0.035
218.591,0.035
219.372,0.036
220.004,0.035
220.785,0.035
221.423,0.035
222.19,0.035
222.834,0.035
223.609,0.036
224.246,0.036
225.02,0.036
225.65,0.036
226.434,0.036
227.069,0.035
227.838,0.035
228.474,0.035
229.255,0.036
229.884,0.035
230.667,0.035
231.296,0.036
232.078,0.036
232.709,0.035
233.486,0.036
234.126,0.036
234.897,0.036
235.538,0.037
236.312,0.036
236.944,0.036
237.726,0.037
238.36,0.036
239.132,0.036
239.774,0.037
240.549,0.036
241.181,0.036
241.958,0.037
242.592,0.037
243.368,0.037
244,0.036
244.779,0.037
245.416,0.037
246.186,0.036
246.827,0.036
247.599,0.037
248.239,0.037
249.015,0.037
249.652,0.038
250.428,0.037
251.141,0.037
251.842,0.037
252.474,0.037
253.246,0.038
253.887,0.037
254.658,0.037
255.299,0.037
256.072,0.037
256.705,0.037
257.485,0.037
258.204,0.037
258.893,0.038
259.534,0.038
260.305,0.038
260.942,0.037
261.722,0.038
262.355,0.038
263.123,0.038
263.768,0.038
264.538,0.038
265.179,0.038
265.955,0.038
266.589,0.039
267.367,0.038
267.998,0.038
268.779,0.038
269.414,0.038
270.183,0.039
270.826,0.038
271.602,0.038
272.236,0.039
273.014,0.038
273.649,0.039
274.42,0.038
275.062,0.038
275.833,0.039
276.464,0.039
277.245,0.039
277.884,0.039
278.653,0.039
279.287,0.04
280.069,0.039
280.7,0.039
281.483,0.04
282.11,0.04
282.893,0.04
283.531,0.04
284.305,0.041
284.936,0.043
285.718,0.046
286.348,0.047
287.129,0.05
287.762,0.052
288.533,0.056
289.169,0.058
289.945,0.063
290.586,0.067
291.356,0.074
291.996,0.079
292.776,0.087
293.409,0.094
294.187,0.106
294.819,0.113
295.59,0.125
296.233,0.132
297.005,0.145
297.636,0.151
298.417,0.166
299.052,0.176
299.828,0.197
300.467,0.206
301.242,0.228
301.878,0.239
302.653,0.258
303.283,0.269
304.068,0.291
304.703,0.302
305.475,0.329
306.107,0.346
306.889,0.375
307.518,0.389
308.302,0.411
308.93,0.423
309.71,0.444
310.349,0.454
311.123,0.474
311.759,0.484
312.531,0.506
313.165,0.517
313.929,0.538
314.567,0.55
315.338,0.583
315.98,0.601
316.755,0.626
317.387,0.637
318.171,0.662
318.805,0.674
319.574,0.695
320.213,0.703
320.984,0.716
321.625,0.722
322.404,0.738
323.037,0.746
323.813,0.772
324.448,0.784
325.221,0.798
325.863,0.807
326.632,0.823
327.272,0.83
328.048,0.844
328.685,0.852
329.459,0.863
330.095,0.868
330.866,0.879
331.503,0.886
332.279,0.899
332.918,0.905
333.688,0.918
334.323,0.923
335.109,0.932
335.741,0.936
336.512,0.947
337.148,0.952
337.923,0.962
338.56,0.966
339.336,0.977
339.969,0.982
340.747,0.991
341.387,0.996
342.161,1.006
342.799,1.012
343.576,1.023
344.211,1.029
344.988,1.037
345.623,1.042
346.397,1.049
347.037,1.053
347.803,1.06
348.439,1.065
349.217,1.073
349.857,1.078
350.634,1.087
351.268,1.091
352.04,1.099
352.672,1.103
353.452,1.11
354.093,1.113
354.861,1.12
355.498,1.124
356.281,1.132
356.917,1.137
357.693,1.143
358.328,1.146
359.104,1.15
359.73,1.153
360.509,1.157
361.147,1.16
361.923,1.165
362.555,1.169
363.332,1.18
363.974,1.185
364.75,1.191
365.377,1.194
366.156,1.198
366.787,1.201
367.567,1.205
368.205,1.207
368.98,1.212
369.62,1.214
370.391,1.218
371.03,1.22
371.803,1.224
372.434,1.227
373.216,1.231
373.854,1.234
374.627,1.237
375.265,1.239
376.038,1.243
376.675,1.245
377.45,1.249
378.087,1.251
378.865,1.255
379.492,1.257
380.268,1.261
380.908,1.263
381.685,1.267
382.318,1.268
383.097,1.272
383.728,1.275
384.51,1.279
385.14,1.281
385.922,1.286
386.552,1.288
387.328,1.291
387.97,1.292
388.739,1.297
389.376,1.298
390.154,1.302
390.787,1.304
391.568,1.307
392.203,1.309
392.979,1.313
393.611,1.315
394.383,1.316
395.018,1.319
395.804,1.321
396.435,1.322
397.207,1.325
397.846,1.327
398.619,1.33
399.26,1.331
400.03,1.333
400.671,1.334
401.442,1.337
402.083,1.338
402.86,1.341
403.495,1.343
404.266,1.346
404.907,1.347
405.679,1.349
406.318,1.351
407.09,1.354
407.729,1.355
408.505,1.358
409.138,1.359
409.915,1.362
410.544,1.363
411.325,1.366
411.956,1.367
412.735,1.37
413.367,1.371
414.148,1.373
414.781,1.375
415.554,1.378
416.195,1.378
416.972,1.381
417.604,1.382
418.385,1.384
419.016,1.384
419.791,1.387
420.428,1.388
421.211,1.391
421.84,1.392
422.62,1.394
423.253,1.395
424.027,1.397
424.665,1.398
425.443,1.401
426.075,1.402
426.856,1.404
427.488,1.405
428.26,1.407
428.9,1.408
429.674,1.41
430.312,1.411
431.088,1.413
431.725,1.414
432.502,1.415
433.128,1.417
433.907,1.418
434.547,1.419
435.315,1.421
435.958,1.422
436.73,1.424
437.37,1.425
438.141,1.426
438.782,1.427
439.559,1.428
440.194,1.429
440.968,1.43
441.596,1.432
442.379,1.434
443.013,1.435
443.788,1.437
444.422,1.438
445.205,1.44
445.831,1.44
446.612,1.442
447.244,1.442
448.018,1.444
448.659,1.446
449.432,1.447
450.072,1.448
450.847,1.45
451.478,1.451
452.258,1.452
452.896,1.453
453.668,1.454
454.302,1.455
455.081,1.457
455.714,1.458
456.497,1.458
457.132,1.459
457.905,1.461
458.536,1.462
459.316,1.463
459.946,1.464
460.727,1.465
461.367,1.465
462.138,1.468
462.768,1.468
463.55,1.469
464.184,1.469
464.963,1.471
465.6,1.472
466.372,1.472
467.005,1.473
467.785,1.475
468.415,1.476
469.197,1.477
469.83,1.477
470.607,1.479
471.24,1.48
472.019,1.481
472.651,1.481
473.427,1.483
474.069,1.483
474.847,1.484
475.475,1.485
476.257,1.486
476.889,1.487
477.669,1.489
478.301,1.49
479.072,1.49
479.716,1.49
480.492,1.493
481.121,1.493
481.902,1.494
482.536,1.494
483.312,1.496
483.948,1.496
484.725,1.498
485.357,1.498
486.134,1.499
486.771,1.501
487.542,1.501
488.184,1.502
488.959,1.502
489.587,1.503
490.369,1.504
491.007,1.504
491.781,1.505
492.414,1.506
493.189,1.507
493.823,1.508
494.604,1.509
495.236,1.509
496.018,1.511
496.648,1.511
497.426,1.511
498.061,1.511
498.841,1.514
499.471,1.514
500.251,1.515
500.888,1.515
501.656,1.516
502.295,1.517
503.076,1.518
503.708,1.518
504.482,1.519
505.118,1.52
505.891,1.521
506.53,1.521
507.302,1.522
507.942,1.522
508.721,1.524
509.356,1.524
510.127,1.525
510.768,1.525
511.538,1.527
512.173,1.527
512.949,1.527
513.591,1.528
514.367,1.529
514.997,1.528
515.773,1.53
516.404,1.531
517.185,1.531
517.824,1.532
518.597,1.533
519.233,1.533
520.01,1.534
520.639,1.534
521.424,1.535
522.056,1.535
522.832,1.535
523.457,1.536
524.232,1.537
524.862,1.538
525.646,1.538
526.277,1.538
527.058,1.54
527.689,1.54
528.468,1.541
529.1,1.542
529.882,1.542
530.51,1.543
531.29,1.544
531.928,1.544
532.699,1.545
533.334,1.545
534.112,1.545
534.749,1.546
535.52,1.547
536.162,1.548
536.932,1.548
537.574,1.548
538.343,1.549
538.977,1.549
539.756,1.55
540.388,1.55
541.168,1.551
541.809,1.551
542.585,1.552
543.21,1.552
543.994,1.554
544.63,1.553
545.402,1.554
546.038,1.555
546.811,1.556
547.449,1.555
548.226,1.556
548.865,1.557
549.638,1.557
550.277,1.557
551.048,1.558
551.68,1.558
552.463,1.559
553.091,1.559
553.874,1.559
554.507,1.56
555.283,1.561
555.918,1.561
556.696,1.561
557.325,1.563
558.107,1.563
558.738,1.563
559.517,1.563
560.149,1.564
560.933,1.565
561.568,1.565
562.342,1.566
562.98,1.566
563.755,1.567
564.385,1.567
565.166,1.568
565.796,1.568
566.578,1.568
567.205,1.568
567.985,1.569
568.625,1.569
569.401,1.569
570.032,1.57
570.812,1.571
571.443,1.57
572.225,1.571
572.856,1.572
573.628,1.573
574.268,1.573
575.048,1.573
575.68,1.574
576.451,1.574
577.095,1.574
577.863,1.575
578.507,1.575
579.274,1.575
579.915,1.575
580.688,1.577
581.321,1.576
582.103,1.578
582.732,1.577
583.518,1.578
584.151,1.578
584.922,1.579
585.563,1.579
586.34,1.579
586.975,1.579
587.747,1.581
588.377,1.581
589.159,1.581
589.795,1.581
590.567,1.582
591.206,1.582
591.983,1.582
592.613,1.583
593.394,1.584
594.026,1.583
594.807,1.584
595.444,1.584
596.22,1.585
596.85,1.585
597.626,1.586
598.268,1.585
599.044,1.587
599.673,1.587
600.449,1.587
601.084,1.587
601.864,1.588
602.499,1.588
603.269,1.588
603.91,1.589
604.688,1.589
605.321,1.589
606.096,1.589
606.735,1.59
607.505,1.59
608.14,1.59
608.921,1.59
609.558,1.59
610.329,1.592
610.964,1.592
611.74,1.592
612.378,1.593
613.152,1.593
613.784,1.593
614.566,1.594
615.198,1.593
615.974,1.593
616.616,1.594
617.392,1.594
618.02,1.595
618.801,1.595
619.432,1.595
620.212,1.596
620.844,1.596
621.624,1.597
622.255,1.597
623.033,1.597
623.665,1.597
624.449,1.597
625.085,1.598
625.861,1.598
626.489,1.598
627.264,1.598
627.906,1.599
628.685,1.599
629.312,1.599
630.086,1.599
630.728,1.599
631.498,1.6
632.14,1.6
632.914,1.6
633.546,1.601
634.33,1.602
634.965,1.602
635.736,1.602
636.376,1.603
637.147,1.603
637.779,1.603
638.56,1.603
639.191,1.604
639.973,1.603
640.611,1.603
641.382,1.604
642.014,1.604
642.794,1.604
643.425,1.605
644.206,1.604
644.844,1.605
645.617,1.606
646.251,1.606
647.028,1.606
647.66,1.606
648.441,1.607
649.073,1.606
649.853,1.606
650.483,1.607
651.26,1.607
651.893,1.607
652.677,1.608
653.312,1.608
654.084,1.608
654.724,1.609
655.496,1.609
656.128,1.609
656.911,1.609
657.541,1.61
658.323,1.61
658.958,1.61
659.732,1.609
660.364,1.609
661.146,1.61
661.777,1.611
662.556,1.611
663.189,1.611
663.97,1.611
664.6,1.612
665.381,1.611
666.01,1.612
666.786,1.612
667.42,1.612
668.2,1.613
668.839,1.612
669.616,1.612
670.248,1.613
671.022,1.613
671.661,1.613
672.44,1.613
673.07,1.613
673.85,1.614
674.48,1.615
675.262,1.615
675.894,1.615
676.673,1.615
677.308,1.615
678.077,1.616
678.717,1.615
679.488,1.616
680.129,1.616
680.906,1.616
681.542,1.616
682.314,1.616
682.953,1.616
683.731,1.617
684.365,1.617
685.14,1.617
685.779,1.617
686.55,1.618
687.179,1.618
687.961,1.618
688.596,1.618
689.373,1.618
690.003,1.618
690.784,1.618
691.416,1.619
692.196,1.619
692.827,1.619
693.608,1.619
694.24,1.62
695.021,1.619
695.652,1.62
696.428,1.62
697.063,1.621
697.845,1.62
698.475,1.62
699.256,1.621
699.891,1.621
700.664,1.621
701.302,1.621
702.078,1.622
702.716,1.622
703.492,1.622
704.126,1.622
704.901,1.622
705.531,1.622
706.31,1.622
706.944,1.622
707.718,1.623
708.357,1.623
709.133,1.623
709.768,1.623
710.548,1.623
711.184,1.624
711.959,1.624
712.593,1.623
713.371,1.624
714.008,1.624
714.774,1.624
715.416,1.625
716.194,1.625
716.826,1.625
717.606,1.625
718.238,1.625
719.015,1.626
719.646,1.625
720.421,1.626
721.062,1.626
721.839,1.626
722.474,1.626
723.245,1.626
723.887,1.627
724.664,1.627
725.293,1.627
726.07,1.627
726.706,1.627
727.477,1.627
728.12,1.627
728.895,1.627
729.524,1.627
730.306,1.627
730.94,1.627
731.717,1.628
732.351,1.628
733.133,1.628
733.765,1.628
734.54,1.628
735.172,1.629
735.953,1.629
736.584,1.628
737.364,1.629
738,1.628
738.777,1.629
739.408,1.629
740.189,1.63
740.82,1.63
741.591,1.63
742.232,1.63
743.011,1.63
743.644,1.63
744.424,1.63
745.056,1.63
745.828,1.631
746.468,1.631
747.244,1.63
747.88,1.631
748.658,1.631
749.287,1.63
750.063,1.631
750.696,1.631
751.482,1.631
752.111,1.632
752.893,1.631
753.526,1.632
754.297,1.632
754.938,1.632
755.708,1.632
756.35,1.631
757.121,1.632
757.754,1.633
758.532,1.632
759.173,1.633
759.944,1.633
760.575,1.633
761.36,1.633
761.996,1.633
762.773,1.633
763.408,1.633
764.179,1.633
764.82,1.634
765.591,1.633
766.223,1.633
767.004,1.634
767.635,1.634
768.417,1.634
769.046,1.633
769.822,1.634
770.458,1.635
771.239,1.633
771.876,1.634
772.65,1.635
773.281,1.635
774.061,1.634
774.692,1.635
775.474,1.635
776.11,1.635
776.883,1.636
777.516,1.635
778.297,1.635
778.928,1.635
779.71,1.636
780.341,1.635
781.121,1.636
781.748,1.636
782.53,1.636
783.166,1.636
783.943,1.636
784.571,1.636
785.353,1.636
785.991,1.636
786.758,1.637
787.397,1.637
788.179,1.636
788.811,1.637
789.59,1.637
790.225,1.637
790.997,1.637
791.634,1.638
792.404,1.637
793.045,1.637
793.82,1.637
794.457,1.637
795.228,1.638
795.868,1.638
796.64,1.638
797.281,1.638
798.051,1.638
798.692,1.638
799.47,1.638
800.106,1.638
800.877,1.639
801.516,1.638
802.29,1.638
802.926,1.639
803.698,1.639
804.339,1.639
805.109,1.638
805.743,1.639
806.523,1.639
807.154,1.639
807.93,1.639
808.566,1.639
809.348,1.64
809.981,1.639
810.761,1.64
811.395,1.64
812.172,1.639
812.807,1.639
813.581,1.64
814.214,1.64
814.995,1.639
815.631,1.64
816.399,1.64
817.042,1.64
817.82,1.64
818.45,1.641
819.23,1.641
819.863,1.641
820.642,1.64
821.272,1.641
822.053,1.641
822.684,1.641
823.456,1.641
824.095,1.641
824.87,1.641
825.507,1.641
826.286,1.641
826.919,1.641
827.694,1.642
828.327,1.642
829.108,1.642
829.742,1.641
830.52,1.642
831.154,1.643
831.931,1.642
832.567,1.642
833.337,1.642
833.971,1.642
834.748,1.642
835.39,1.642
836.168,1.642
836.8,1.642
837.574,1.643
838.205,1.642
838.983,1.643
839.624,1.642
840.4,1.642
841.034,1.643
841.809,1.643
842.447,1.643
843.224,1.643
843.86,1.643
844.63,1.643
845.271,1.643
846.047,1.644
846.679,1.644
847.453,1.643
848.085,1.644
848.868,1.644
849.501,1.644
850.277,1.644
850.915,1.644
851.689,1.643
852.32,1.644
853.097,1.644
853.74,1.644
854.511,1.644
855.151,1.644
855.924,1.644
856.558,1.644
857.339,1.645
857.966,1.644
858.746,1.644
859.376,1.644
860.157,1.645
860.791,1.645
861.571,1.644
862.2,1.645
862.981,1.645
863.612,1.645
864.392,1.645
865.025,1.645
865.807,1.646
866.437,1.645
867.209,1.645
867.851,1.645
868.63,1.645
869.261,1.646
870.042,1.645
870.672,1.645
871.444,1.645
872.086,1.645
872.857,1.646
873.498,1.646
874.276,1.645
874.912,1.646
875.685,1.646
876.321,1.646
877.094,1.646
877.728,1.646
878.507,1.647
879.141,1.647
879.916,1.646
880.556,1.646
881.326,1.646
881.966,1.647
882.736,1.646
883.378,1.646
884.148,1.647
884.792,1.647
885.566,1.646
886.194,1.647
886.977,1.647
887.607,1.646
888.388,1.647
889.021,1.646
889.795,1.647
890.437,1.647
891.204,1.647
891.845,1.647
892.616,1.647
893.257,1.647
894.037,1.647
894.67,1.647
895.439,1.647
896.081,1.647
896.851,1.648
897.493,1.647
898.263,1.647
898.905,1.647
899.677,1.648
900.31,1.647
901.092,1.647
901.725,1.647
902.497,1.648
903.13,1.648
903.912,1.648
904.551,1.647
905.324,1.647
905.957,1.648
906.73,1.648
907.366,1.648
908.146,1.648
908.781,1.648
909.558,1.648
910.191,1.648
910.972,1.649
911.601,1.648
912.381,1.649
913.017,1.648
913.793,1.648
914.424,1.648
915.206,1.648
915.837,1.649
916.619,1.649
917.254,1.649
918.029,1.648
918.666,1.649
919.442,1.648
920.072,1.649
920.847,1.649
921.487,1.648
922.26,1.65
922.896,1.649
923.667,1.649
924.308,1.649
925.078,1.649
925.713,1.649
926.49,1.649
927.131,1.649
927.906,1.65
928.546,1.649
929.319,1.65
929.955,1.65
930.726,1.649
931.363,1.649
932.141,1.649
932.779,1.65
933.552,1.649
934.186,1.649
934.967,1.649
935.602,1.65
936.373,1.65
937.004,1.65
937.791,1.65
938.422,1.649
939.193,1.65
939.828,1.651
940.607,1.65
941.24,1.65
942.024,1.65
942.657,1.65
943.432,1.65
944.063,1.65
944.845,1.65
945.48,1.65
946.255,1.65
946.886,1.65
947.67,1.65
948.299,1.65
949.08,1.65
949.712,1.65
950.492,1.651
951.123,1.65
951.903,1.651
952.534,1.651
953.316,1.65
953.945,1.651
954.725,1.651
955.363,1.651
956.129,1.651
956.77,1.651
957.551,1.651
958.181,1.651
958.957,1.651
959.597,1.651
960.374,1.65
960.999,1.651
961.776,1.651
962.417,1.65
963.196,1.651
963.829,1.651
964.6,1.651
965.242,1.651
966.014,1.652
966.647,1.651
967.423,1.652
968.065,1.652
968.836,1.651
969.476,1.652
970.247,1.652
970.888,1.651
971.66,1.651
972.3,1.652
973.071,1.652
973.704,1.651
974.487,1.651
975.118,1.652
975.896,1.652
976.526,1.651
977.302,1.652
977.938,1.652
978.72,1.652
979.35,1.652
980.128,1.651
980.768,1.652
981.543,1.652
982.173,1.652
982.952,1.652
983.586,1.652
984.367,1.652
985,1.652
985.775,1.653
986.41,1.652
987.19,1.651
987.821,1.652
988.591,1.652
989.236,1.652
990.004,1.652
990.647,1.652
991.416,1.652
992.059,1.652
992.828,1.652
993.468,1.652
994.247,1.652
994.88,1.652
995.658,1.652
996.293,1.652
997.063,1.652
997.704,1.653
998.475,1.653
999.116,1.653
999.893,1.653
1000.523,1.653
1001.301,1.652
1001.934,1.653
1002.708,1.653
1003.345,1.653
1004.121,1.653
1004.763,1.653
1005.535,1.653
1006.174,1.653
1006.945,1.653
1007.585,1.653
1008.359,1.653
1008.989,1.653
1009.771,1.653
1010.402,1.653
1011.184,1.653
1011.815,1.653
1012.594,1.653
1013.227,1.654
1013.998,1.653
1014.639,1.653
1015.414,1.654
1016.047,1.653
1016.828,1.653
1017.465,1.653
1018.236,1.653
1018.873,1.654
1019.65,1.653
1020.287,1.653
1021.061,1.653
1021.699,1.653
1022.474,1.654
1023.109,1.653
1023.886,1.654
1024.52,1.653
1025.296,1.654
1025.932,1.654
1026.706,1.653
1027.343,1.654
1028.116,1.653
1028.75,1.653
1029.529,1.654
1030.159,1.654
1030.935,1.654
1031.57,1.653
1032.35,1.654
1032.981,1.654
1033.764,1.654
1034.393,1.654
1035.176,1.654
1035.811,1.654
1036.589,1.654
1035.176,1.654
1035.811,1.654
1036.589,1.654
